File: data/exp_raw/ADM6005a spectra/ADM-6005a_8.msa
#FORMAT      : EMSA/MAS Spectral Data File
#VERSION     : 1.0
#TITLE       : Bruker Nano spectrum Acquisition
#DATE        : 12-JUL-2019
#TIME        : 09:54
#OWNER       : Bruker Nano
#NPOINTS     : 4096
#NCOLUMNS    : 1
#XUNITS      : eV
#YUNITS      : counts
#DATATYPE    : Y
#XPERCHAN    : 5.01716
#OFFSET      : -484.208
#BEAMKV      : 20
#SIGNALTYPE  : EDS
#ELEVANGLE   : 40
#AZIMANGLE   : 45
#LIVETIME    : 100.001
#REALTIME    : 112.169
#PROBECUR    : 5
#TAUWIND     : 0
#TDEADLYR    : 0
#TACTLYR     : 0.045
#TALWIND     : 0.004
#CHOFFSET    : 0.0
#XLABEL      : Energy (eV)
#YLABEL      : Counts
#EDSDET      : SDUTW
##DET_HASH   : c6370f9e-cc72-7559-f57e-203d75c8942b
##CALIB_HASH : b2d706fe-df19-4747-f399-990df6ef62be
##SAMPLE     : <BulkSample id="1">\n<mOrientation id="2">\n<double>0.0</double>\n<double>0.0</double>\n<double>-1.0</double>\n</mOrientation>\n</BulkSample>
#SPECTRUM    :
0,
0,
0,
0,
3,
14,
1459,
104379,
34,
260,
571,
2326,
698,
1259,
20870,
5340,
803,
1030,
1370,
2295,
2813,
16354,
12329,
9756,
58243,
8004,
1821,
2672,
18567,
4250,
1678,
6074,
10906,
2357,
1720,
1723,
1696,
1789,
1755,
1779,
1776,
1761,
1758,
1772,
1751,
1766,
1723,
1765,
1701,
1730,
1667,
1665,
1603,
1597,
1584,
1528,
1455,
1528,
2578,
13936,
13446,
2311,
1406,
1904,
3315,
2003,
1272,
1211,
1213,
1260,
4252,
12776,
6296,
1363,
1100,
1076,
1503,
2458,
1757,
953,
894,
883,
912,
919,
858,
848,
841,
803,
807,
795,
774,
790,
755,
745,
737,
768,
761,
722,
722,
686,
686,
641,
669,
600,
648,
564,
638,
616,
609,
611,
580,
566,
576,
560,
545,
551,
500,
494,
522,
473,
512,
457,
460,
494,
451,
520,
431,
520,
1161,
3614,
4801,
2326,
626,
405,
414,
376,
375,
404,
375,
358,
415,
397,
682,
1020,
788,
734,
2481,
6177,
5908,
2301,
550,
323,
326,
286,
307,
297,
264,
268,
282,
263,
272,
377,
719,
1060,
865,
435,
271,
238,
211,
200,
204,
202,
197,
186,
207,
179,
184,
163,
190,
175,
193,
175,
165,
159,
151,
146,
162,
160,
166,
152,
152,
119,
125,
124,
114,
127,
125,
124,
109,
111,
111,
108,
99,
98,
114,
101,
95,
111,
85,
93,
83,
96,
85,
74,
83,
86,
83,
80,
81,
62,
64,
56,
49,
65,
61,
67,
66,
58,
50,
57,
46,
35,
46,
53,
59,
32,
43,
38,
39,
44,
45,
32,
28,
24,
30,
36,
30,
32,
27,
17,
21,
29,
21,
31,
23,
18,
25,
21,
20,
23,
18,
9,
14,
17,
12,
14,
13,
13,
15,
16,
5,
17,
12,
8,
13,
6,
5,
9,
6,
9,
5,
8,
7,
3,
0,
4,
4,
2,
0,
1,
0,
0,
0,
0,
#ENDOFDATA   :