File: data/exp_raw/ADM6005a spectra/ADM-6005a_11.msa
#FORMAT      : EMSA/MAS Spectral Data File
#VERSION     : 1.0
#TITLE       : Bruker Nano spectrum Acquisition
#DATE        : 12-JUL-2019
#TIME        : 10:01
#OWNER       : Bruker Nano
#NPOINTS     : 4096
#NCOLUMNS    : 1
#XUNITS      : eV
#YUNITS      : counts
#DATATYPE    : Y
#XPERCHAN    : 5.01716
#OFFSET      : -484.208
#BEAMKV      : 20
#SIGNALTYPE  : EDS
#ELEVANGLE   : 40
#AZIMANGLE   : 45
#LIVETIME    : 100.001
#REALTIME    : 112.069
#PROBECUR    : 5
#TAUWIND     : 0
#TDEADLYR    : 0
#TACTLYR     : 0.045
#TALWIND     : 0.004
#CHOFFSET    : 0.0
#XLABEL      : Energy (eV)
#YLABEL      : Counts
#EDSDET      : SDUTW
##DET_HASH   : c6370f9e-cc72-7559-f57e-203d75c8942b
##CALIB_HASH : b2d706fe-df19-4747-f399-990df6ef62be
##SAMPLE     : <BulkSample id="1">\n<mOrientation id="2">\n<double>0.0</double>\n<double>0.0</double>\n<double>-1.0</double>\n</mOrientation>\n</BulkSample>
#SPECTRUM    :
0,
0,
0,
0,
2,
10,
1469,
104651,
36,
274,
558,
2351,
695,
1299,
21207,
5528,
841,
1136,
1352,
2229,
2665,
16285,
12193,
10026,
58207,
8036,
1907,
2779,
18420,
4257,
1676,
6080,
10985,
2378,
1697,
1735,
1768,
1818,
1779,
1733,
1780,
1764,
1700,
1740,
1745,
1774,
1684,
1720,
1727,
1658,
1697,
1662,
1630,
1607,
1555,
1534,
1491,
1533,
2606,
13894,
13520,
2358,
1414,
1947,
3341,
2010,
1251,
1202,
1196,
1345,
4295,
12734,
6227,
1436,
1054,
1124,
1485,
2437,
1692,
1011,
923,
906,
887,
935,
860,
868,
838,
856,
765,
784,
768,
785,
751,
723,
725,
726,
696,
708,
727,
706,
654,
647,
623,
656,
607,
659,
584,
539,
579,
562,
561,
577,
567,
578,
536,
562,
504,
544,
509,
474,
514,
540,
487,
487,
461,
471,
478,
515,
1164,
3603,
4985,
2259,
661,
407,
397,
380,
397,
396,
356,
345,
380,
420,
659,
958,
820,
719,
2511,
6048,
5892,
2431,
568,
335,
303,
273,
272,
256,
253,
263,
250,
290,
267,
361,
696,
1087,
863,
423,
244,
231,
204,
235,
216,
179,
193,
192,
187,
195,
203,
167,
179,
167,
141,
164,
163,
140,
149,
143,
125,
120,
151,
146,
148,
123,
161,
138,
148,
124,
111,
122,
114,
107,
97,
118,
105,
119,
112,
116,
110,
99,
81,
87,
94,
87,
92,
77,
64,
74,
66,
61,
67,
61,
66,
69,
55,
65,
70,
66,
52,
66,
44,
55,
48,
41,
43,
47,
38,
41,
47,
40,
39,
33,
34,
47,
29,
26,
31,
22,
32,
33,
31,
28,
36,
28,
30,
15,
25,
21,
17,
27,
18,
22,
17,
24,
18,
18,
13,
13,
16,
16,
12,
11,
10,
15,
3,
11,
13,
11,
5,
4,
1,
4,
2,
4,
2,
6,
3,
1,
9,
0,
0,
0,
2,
1,
0,
0,
#ENDOFDATA   :