File: data/exp_raw/ADM6005a spectra/ADM-6005a_5.msa
#FORMAT      : EMSA/MAS Spectral Data File
#VERSION     : 1.0
#TITLE       : Bruker Nano spectrum Acquisition
#DATE        : 12-JUL-2019
#TIME        : 09:46
#OWNER       : Bruker Nano
#NPOINTS     : 4096
#NCOLUMNS    : 1
#XUNITS      : eV
#YUNITS      : counts
#DATATYPE    : Y
#XPERCHAN    : 5.01716
#OFFSET      : -484.208
#BEAMKV      : 20
#SIGNALTYPE  : EDS
#ELEVANGLE   : 40
#AZIMANGLE   : 45
#LIVETIME    : 100.001
#REALTIME    : 112.11
#PROBECUR    : 5
#TAUWIND     : 0
#TDEADLYR    : 0
#TACTLYR     : 0.045
#TALWIND     : 0.004
#CHOFFSET    : 0.0
#XLABEL      : Energy (eV)
#YLABEL      : Counts
#EDSDET      : SDUTW
##DET_HASH   : c6370f9e-cc72-7559-f57e-203d75c8942b
##CALIB_HASH : b2d706fe-df19-4747-f399-990df6ef62be
##SAMPLE     : <BulkSample id="1">\n<mOrientation id="2">\n<double>0.0</double>\n<double>0.0</double>\n<double>-1.0</double>\n</mOrientation>\n</BulkSample>
#SPECTRUM    :
0,
0,
0,
0,
4,
6,
1441,
104123,
30,
267,
599,
2306,
714,
1274,
20753,
5450,
819,
1081,
1367,
2211,
2846,
16228,
12361,
9796,
57655,
7874,
1829,
2735,
18495,
4238,
1645,
6056,
11054,
2537,
1720,
1726,
1782,
1794,
1719,
1754,
1803,
1793,
1748,
1778,
1736,
1731,
1665,
1717,
1718,
1675,
1630,
1598,
1635,
1592,
1572,
1556,
1494,
1511,
2628,
13913,
13401,
2371,
1448,
1900,
3286,
2009,
1261,
1232,
1199,
1301,
4162,
12882,
6350,
1351,
986,
1003,
1515,
2476,
1757,
965,
926,
959,
909,
901,
843,
849,
858,
824,
781,
788,
804,
775,
735,
768,
745,
724,
696,
733,
701,
675,
681,
657,
688,
585,
646,
608,
633,
649,
627,
564,
589,
548,
568,
518,
573,
527,
501,
518,
507,
506,
457,
509,
481,
495,
447,
478,
434,
505,
1165,
3731,
4853,
2238,
706,
408,
410,
388,
415,
390,
412,
402,
353,
384,
666,
1006,
842,
748,
2463,
6091,
5916,
2260,
537,
366,
283,
305,
301,
281,
277,
276,
289,
268,
257,
407,
698,
1106,
878,
388,
241,
226,
223,
204,
196,
207,
176,
166,
174,
206,
171,
187,
166,
185,
169,
165,
187,
169,
143,
146,
151,
162,
139,
152,
115,
143,
130,
135,
128,
131,
112,
126,
99,
108,
113,
98,
97,
108,
97,
90,
99,
81,
84,
89,
83,
84,
84,
73,
84,
78,
83,
61,
76,
64,
74,
54,
77,
49,
69,
71,
60,
51,
51,
58,
52,
52,
48,
49,
43,
49,
46,
41,
51,
38,
33,
41,
34,
34,
31,
29,
24,
28,
26,
28,
15,
26,
25,
29,
20,
28,
20,
21,
10,
18,
25,
18,
28,
15,
12,
16,
5,
13,
17,
11,
18,
14,
5,
12,
11,
6,
4,
2,
12,
3,
4,
2,
7,
2,
1,
4,
8,
0,
1,
0,
2,
0,
0,
0,
#ENDOFDATA   :