File: data/exp_raw/ADM6005a spectra/ADM-6005a_10.msa
#FORMAT      : EMSA/MAS Spectral Data File
#VERSION     : 1.0
#TITLE       : Bruker Nano spectrum Acquisition
#DATE        : 12-JUL-2019
#TIME        : 09:59
#OWNER       : Bruker Nano
#NPOINTS     : 4096
#NCOLUMNS    : 1
#XUNITS      : eV
#YUNITS      : counts
#DATATYPE    : Y
#XPERCHAN    : 5.01716
#OFFSET      : -484.208
#BEAMKV      : 20
#SIGNALTYPE  : EDS
#ELEVANGLE   : 40
#AZIMANGLE   : 45
#LIVETIME    : 100
#REALTIME    : 112.111
#PROBECUR    : 5
#TAUWIND     : 0
#TDEADLYR    : 0
#TACTLYR     : 0.045
#TALWIND     : 0.004
#CHOFFSET    : 0.0
#XLABEL      : Energy (eV)
#YLABEL      : Counts
#EDSDET      : SDUTW
##DET_HASH   : c6370f9e-cc72-7559-f57e-203d75c8942b
##CALIB_HASH : b2d706fe-df19-4747-f399-990df6ef62be
##SAMPLE     : <BulkSample id="1">\n<mOrientation id="2">\n<double>0.0</double>\n<double>0.0</double>\n<double>-1.0</double>\n</mOrientation>\n</BulkSample>
#SPECTRUM    :
0,
0,
0,
0,
1,
6,
1493,
104319,
29,
254,
563,
2236,
701,
1292,
20985,
5504,
846,
1117,
1335,
2211,
2805,
16459,
12398,
9861,
58081,
7958,
1838,
2735,
18535,
4264,
1718,
6005,
11064,
2457,
1754,
1766,
1717,
1789,
1734,
1759,
1770,
1750,
1741,
1740,
1799,
1736,
1746,
1703,
1671,
1656,
1673,
1605,
1679,
1548,
1563,
1550,
1483,
1568,
2605,
13691,
13344,
2348,
1440,
1945,
3366,
1995,
1264,
1205,
1216,
1246,
4163,
12802,
6184,
1331,
1046,
1102,
1451,
2422,
1743,
1002,
916,
900,
875,
895,
842,
841,
831,
823,
783,
786,
791,
744,
715,
744,
715,
777,
661,
722,
741,
705,
648,
691,
667,
611,
622,
653,
569,
598,
608,
593,
549,
575,
593,
590,
544,
512,
534,
525,
527,
470,
501,
503,
473,
460,
521,
459,
430,
502,
1172,
3619,
5013,
2251,
690,
397,
393,
405,
400,
377,
351,
372,
369,
430,
660,
978,
778,
696,
2391,
6052,
5965,
2318,
562,
318,
291,
297,
290,
269,
275,
291,
275,
249,
254,
363,
701,
1031,
879,
398,
258,
230,
198,
211,
219,
177,
209,
192,
193,
166,
185,
183,
186,
156,
164,
169,
187,
147,
157,
146,
143,
167,
145,
120,
141,
134,
97,
131,
110,
124,
130,
132,
118,
94,
103,
117,
95,
100,
102,
99,
86,
97,
68,
80,
89,
78,
75,
91,
84,
73,
74,
84,
87,
57,
65,
71,
71,
73,
61,
60,
50,
54,
73,
56,
56,
55,
46,
56,
45,
49,
51,
47,
38,
42,
40,
37,
32,
34,
43,
39,
23,
35,
30,
24,
31,
24,
25,
25,
16,
20,
12,
27,
15,
29,
16,
15,
23,
10,
15,
11,
5,
13,
14,
12,
8,
13,
13,
6,
8,
7,
12,
5,
6,
5,
5,
2,
3,
3,
3,
1,
6,
0,
0,
0,
0,
1,
0,
0,
#ENDOFDATA   :