File: data/exp_raw/ADM6005a spectra/ADM-6005a_9.msa
#FORMAT      : EMSA/MAS Spectral Data File
#VERSION     : 1.0
#TITLE       : Bruker Nano spectrum Acquisition
#DATE        : 12-JUL-2019
#TIME        : 09:57
#OWNER       : Bruker Nano
#NPOINTS     : 4096
#NCOLUMNS    : 1
#XUNITS      : eV
#YUNITS      : counts
#DATATYPE    : Y
#XPERCHAN    : 5.01716
#OFFSET      : -484.208
#BEAMKV      : 20
#SIGNALTYPE  : EDS
#ELEVANGLE   : 40
#AZIMANGLE   : 45
#LIVETIME    : 100.001
#REALTIME    : 112.184
#PROBECUR    : 5
#TAUWIND     : 0
#TDEADLYR    : 0
#TACTLYR     : 0.045
#TALWIND     : 0.004
#CHOFFSET    : 0.0
#XLABEL      : Energy (eV)
#YLABEL      : Counts
#EDSDET      : SDUTW
##DET_HASH   : c6370f9e-cc72-7559-f57e-203d75c8942b
##CALIB_HASH : b2d706fe-df19-4747-f399-990df6ef62be
##SAMPLE     : <BulkSample id="1">\n<mOrientation id="2">\n<double>0.0</double>\n<double>0.0</double>\n<double>-1.0</double>\n</mOrientation>\n</BulkSample>
#SPECTRUM    :
0,
0,
0,
0,
1,
11,
1466,
104102,
38,
255,
568,
2277,
710,
1211,
21038,
5405,
809,
1151,
1346,
2175,
2731,
16429,
12234,
10008,
57987,
7985,
1864,
2722,
18321,
4258,
1703,
5986,
10984,
2391,
1670,
1734,
1740,
1762,
1752,
1726,
1731,
1727,
1751,
1690,
1761,
1746,
1716,
1753,
1731,
1674,
1641,
1671,
1635,
1659,
1542,
1527,
1497,
1504,
2570,
13868,
13249,
2337,
1462,
1962,
3332,
2045,
1268,
1207,
1204,
1292,
4237,
12792,
6415,
1363,
1053,
1090,
1505,
2466,
1759,
959,
974,
866,
887,
892,
828,
833,
835,
796,
802,
813,
784,
799,
772,
766,
735,
693,
698,
737,
753,
695,
674,
634,
609,
633,
618,
635,
580,
631,
573,
548,
522,
525,
538,
572,
576,
547,
549,
507,
530,
500,
493,
486,
479,
496,
475,
448,
464,
524,
1193,
3686,
4816,
2286,
624,
439,
406,
374,
369,
422,
385,
393,
375,
447,
658,
1026,
748,
794,
2472,
6094,
5935,
2360,
529,
317,
298,
286,
288,
259,
287,
239,
302,
297,
280,
354,
730,
1119,
883,
432,
244,
241,
222,
199,
203,
210,
202,
199,
211,
179,
164,
181,
184,
158,
176,
171,
162,
170,
143,
174,
147,
157,
131,
124,
144,
120,
128,
120,
125,
117,
133,
121,
126,
123,
95,
109,
111,
103,
106,
104,
100,
93,
67,
88,
97,
89,
74,
75,
78,
80,
74,
80,
57,
81,
64,
65,
67,
55,
60,
71,
54,
56,
45,
45,
58,
64,
42,
46,
45,
53,
49,
49,
39,
42,
38,
35,
44,
44,
33,
31,
29,
33,
36,
30,
26,
17,
27,
15,
21,
12,
19,
20,
14,
20,
16,
20,
17,
23,
3,
17,
24,
12,
12,
4,
12,
7,
10,
10,
6,
6,
9,
7,
8,
5,
2,
1,
4,
2,
1,
2,
2,
4,
4,
2,
1,
1,
0,
0,
#ENDOFDATA   :