File: data/exp_raw/ADM6005a spectra/ADM-6005a_13.msa
#FORMAT      : EMSA/MAS Spectral Data File
#VERSION     : 1.0
#TITLE       : Bruker Nano spectrum Acquisition
#DATE        : 12-JUL-2019
#TIME        : 10:06
#OWNER       : Bruker Nano
#NPOINTS     : 4096
#NCOLUMNS    : 1
#XUNITS      : eV
#YUNITS      : counts
#DATATYPE    : Y
#XPERCHAN    : 5.01716
#OFFSET      : -484.208
#BEAMKV      : 20
#SIGNALTYPE  : EDS
#ELEVANGLE   : 40
#AZIMANGLE   : 45
#LIVETIME    : 100.001
#REALTIME    : 112.093
#PROBECUR    : 5
#TAUWIND     : 0
#TDEADLYR    : 0
#TACTLYR     : 0.045
#TALWIND     : 0.004
#CHOFFSET    : 0.0
#XLABEL      : Energy (eV)
#YLABEL      : Counts
#EDSDET      : SDUTW
##DET_HASH   : c6370f9e-cc72-7559-f57e-203d75c8942b
##CALIB_HASH : b2d706fe-df19-4747-f399-990df6ef62be
##SAMPLE     : <BulkSample id="1">\n<mOrientation id="2">\n<double>0.0</double>\n<double>0.0</double>\n<double>-1.0</double>\n</mOrientation>\n</BulkSample>
#SPECTRUM    :
0,
0,
0,
0,
4,
8,
1481,
104389,
30,
275,
586,
2203,
717,
1313,
21095,
5379,
739,
1109,
1373,
2242,
2767,
16302,
12353,
10022,
58246,
7806,
1865,
2543,
18330,
4295,
1639,
6065,
11032,
2464,
1713,
1789,
1739,
1709,
1762,
1786,
1754,
1792,
1734,
1779,
1724,
1765,
1722,
1678,
1687,
1669,
1629,
1668,
1569,
1537,
1580,
1591,
1515,
1542,
2605,
13864,
13472,
2342,
1437,
1922,
3353,
2043,
1268,
1213,
1200,
1295,
4307,
12710,
6399,
1337,
1097,
1111,
1498,
2450,
1772,
1025,
950,
912,
896,
835,
906,
817,
829,
874,
797,
802,
779,
792,
760,
749,
736,
710,
717,
726,
672,
692,
687,
619,
623,
632,
598,
623,
608,
593,
584,
542,
555,
531,
547,
592,
549,
536,
524,
510,
514,
434,
501,
508,
447,
492,
471,
466,
475,
505,
1159,
3684,
4872,
2306,
721,
458,
413,
383,
375,
393,
360,
389,
375,
412,
672,
1026,
774,
762,
2474,
5919,
5939,
2264,
544,
316,
291,
300,
303,
260,
260,
240,
285,
242,
288,
336,
706,
1118,
917,
432,
235,
229,
231,
202,
189,
184,
178,
201,
191,
201,
174,
193,
184,
157,
181,
167,
164,
143,
145,
142,
181,
144,
145,
162,
136,
141,
123,
125,
143,
115,
131,
127,
112,
118,
122,
94,
122,
102,
112,
106,
85,
106,
101,
100,
95,
75,
80,
76,
73,
73,
77,
74,
61,
85,
73,
80,
70,
67,
51,
57,
69,
57,
58,
38,
55,
51,
46,
55,
47,
33,
43,
33,
25,
37,
41,
40,
43,
37,
31,
30,
28,
35,
41,
19,
27,
32,
20,
16,
29,
18,
22,
20,
19,
16,
21,
25,
15,
14,
18,
12,
22,
18,
8,
8,
13,
10,
12,
5,
10,
7,
4,
5,
2,
3,
5,
3,
4,
2,
2,
7,
3,
0,
0,
0,
3,
1,
0,
0,
#ENDOFDATA   :