File: data/exp_raw/ADM6005a spectra/ADM-6005a_4.msa
#FORMAT      : EMSA/MAS Spectral Data File
#VERSION     : 1.0
#TITLE       : Bruker Nano spectrum Acquisition
#DATE        : 12-JUL-2019
#TIME        : 09:42
#OWNER       : Bruker Nano
#NPOINTS     : 4096
#NCOLUMNS    : 1
#XUNITS      : eV
#YUNITS      : counts
#DATATYPE    : Y
#XPERCHAN    : 5.01716
#OFFSET      : -484.208
#BEAMKV      : 20
#SIGNALTYPE  : EDS
#ELEVANGLE   : 40
#AZIMANGLE   : 45
#LIVETIME    : 100.001
#REALTIME    : 112.169
#PROBECUR    : 5
#TAUWIND     : 0
#TDEADLYR    : 0
#TACTLYR     : 0.045
#TALWIND     : 0.004
#CHOFFSET    : 0.0
#XLABEL      : Energy (eV)
#YLABEL      : Counts
#EDSDET      : SDUTW
##DET_HASH   : c6370f9e-cc72-7559-f57e-203d75c8942b
##CALIB_HASH : b2d706fe-df19-4747-f399-990df6ef62be
##SAMPLE     : <BulkSample id="1">\n<mOrientation id="2">\n<double>0.0</double>\n<double>0.0</double>\n<double>-1.0</double>\n</mOrientation>\n</BulkSample>
#SPECTRUM    :
0,
0,
0,
0,
4,
13,
1504,
104401,
23,
258,
550,
2356,
707,
1259,
20845,
5474,
786,
1109,
1370,
2219,
2902,
16394,
12264,
9723,
58167,
7872,
1831,
2773,
18458,
4272,
1731,
6008,
10959,
2418,
1745,
1753,
1732,
1680,
1801,
1748,
1790,
1772,
1754,
1825,
1795,
1769,
1731,
1772,
1691,
1639,
1613,
1625,
1696,
1594,
1504,
1503,
1521,
1527,
2602,
13688,
13171,
2306,
1425,
1934,
3367,
2024,
1251,
1231,
1186,
1313,
4239,
12774,
6372,
1393,
1117,
1103,
1493,
2440,
1718,
975,
919,
896,
888,
891,
825,
839,
810,
816,
826,
792,
767,
808,
768,
770,
733,
757,
673,
711,
729,
690,
691,
691,
624,
614,
593,
612,
584,
591,
549,
612,
530,
561,
516,
575,
572,
534,
541,
484,
497,
468,
460,
470,
474,
468,
458,
473,
474,
512,
1122,
3683,
4871,
2273,
682,
413,
404,
384,
395,
371,
349,
405,
388,
409,
660,
944,
744,
750,
2427,
6121,
5883,
2276,
563,
322,
274,
269,
273,
284,
264,
255,
254,
243,
265,
388,
720,
1136,
907,
412,
265,
247,
208,
175,
221,
200,
207,
191,
190,
173,
159,
162,
163,
170,
160,
137,
168,
149,
133,
162,
138,
176,
145,
164,
165,
137,
148,
148,
115,
107,
104,
121,
100,
93,
115,
116,
99,
99,
92,
119,
92,
68,
104,
91,
76,
80,
85,
66,
76,
62,
75,
84,
76,
55,
71,
57,
73,
60,
53,
46,
49,
61,
62,
44,
52,
51,
61,
56,
46,
42,
51,
48,
34,
36,
39,
30,
25,
51,
41,
29,
29,
39,
17,
24,
21,
24,
25,
15,
16,
19,
20,
14,
23,
14,
16,
11,
20,
19,
18,
8,
16,
15,
13,
5,
8,
6,
13,
9,
6,
11,
8,
9,
3,
6,
3,
1,
2,
9,
2,
1,
2,
2,
0,
0,
0,
2,
1,
0,
#ENDOFDATA   :