File: data/exp_raw/ADM6005a spectra/ADM-6005a_7.msa
#FORMAT      : EMSA/MAS Spectral Data File
#VERSION     : 1.0
#TITLE       : Bruker Nano spectrum Acquisition
#DATE        : 12-JUL-2019
#TIME        : 09:52
#OWNER       : Bruker Nano
#NPOINTS     : 4096
#NCOLUMNS    : 1
#XUNITS      : eV
#YUNITS      : counts
#DATATYPE    : Y
#XPERCHAN    : 5.01716
#OFFSET      : -484.208
#BEAMKV      : 20
#SIGNALTYPE  : EDS
#ELEVANGLE   : 40
#AZIMANGLE   : 45
#LIVETIME    : 100.001
#REALTIME    : 112.162
#PROBECUR    : 5
#TAUWIND     : 0
#TDEADLYR    : 0
#TACTLYR     : 0.045
#TALWIND     : 0.004
#CHOFFSET    : 0.0
#XLABEL      : Energy (eV)
#YLABEL      : Counts
#EDSDET      : SDUTW
##DET_HASH   : c6370f9e-cc72-7559-f57e-203d75c8942b
##CALIB_HASH : b2d706fe-df19-4747-f399-990df6ef62be
##SAMPLE     : <BulkSample id="1">\n<mOrientation id="2">\n<double>0.0</double>\n<double>0.0</double>\n<double>-1.0</double>\n</mOrientation>\n</BulkSample>
#SPECTRUM    :
0,
0,
0,
0,
4,
6,
1501,
104375,
27,
262,
528,
2249,
755,
1317,
20892,
5267,
799,
1090,
1340,
2237,
2649,
16312,
12278,
9688,
57529,
7857,
1883,
2754,
18344,
4319,
1711,
6026,
10955,
2432,
1714,
1753,
1764,
1818,
1802,
1763,
1769,
1763,
1750,
1744,
1760,
1750,
1752,
1749,
1717,
1686,
1642,
1601,
1610,
1627,
1521,
1546,
1451,
1523,
2693,
14006,
13209,
2395,
1410,
1981,
3351,
1999,
1259,
1172,
1207,
1318,
4273,
12830,
6339,
1357,
1086,
1043,
1463,
2426,
1738,
979,
907,
911,
942,
889,
864,
866,
803,
827,
817,
783,
772,
747,
771,
732,
760,
683,
749,
697,
654,
751,
669,
624,
625,
642,
605,
615,
623,
580,
587,
573,
544,
588,
589,
572,
579,
511,
535,
492,
486,
479,
496,
480,
508,
489,
464,
498,
485,
503,
1156,
3658,
4788,
2275,
665,
415,
391,
407,
410,
368,
339,
412,
345,
421,
672,
1018,
798,
783,
2454,
6161,
5979,
2279,
558,
303,
290,
292,
309,
266,
279,
292,
267,
279,
289,
338,
708,
1074,
961,
464,
219,
216,
203,
218,
194,
232,
201,
203,
187,
195,
167,
190,
168,
198,
182,
172,
179,
149,
199,
188,
153,
155,
154,
149,
149,
131,
114,
136,
139,
127,
111,
106,
109,
130,
117,
106,
103,
115,
118,
116,
96,
104,
102,
102,
83,
87,
83,
90,
81,
61,
92,
80,
86,
71,
67,
70,
76,
73,
66,
53,
77,
62,
45,
49,
50,
53,
44,
70,
50,
43,
43,
46,
39,
49,
42,
42,
41,
35,
28,
20,
33,
30,
24,
26,
30,
35,
27,
20,
28,
26,
20,
19,
6,
16,
19,
15,
22,
7,
16,
15,
13,
9,
10,
9,
13,
7,
17,
13,
9,
7,
1,
6,
7,
3,
3,
4,
6,
6,
6,
0,
1,
0,
2,
4,
0,
0,
0,
0,
#ENDOFDATA   :