File: data/exp_raw/ADM6005a spectra/ADM-6005a_14.msa
#FORMAT      : EMSA/MAS Spectral Data File
#VERSION     : 1.0
#TITLE       : Bruker Nano spectrum Acquisition
#DATE        : 12-JUL-2019
#TIME        : 10:09
#OWNER       : Bruker Nano
#NPOINTS     : 4096
#NCOLUMNS    : 1
#XUNITS      : eV
#YUNITS      : counts
#DATATYPE    : Y
#XPERCHAN    : 5.01716
#OFFSET      : -484.208
#BEAMKV      : 20
#SIGNALTYPE  : EDS
#ELEVANGLE   : 40
#AZIMANGLE   : 45
#LIVETIME    : 100.001
#REALTIME    : 112.157
#PROBECUR    : 5
#TAUWIND     : 0
#TDEADLYR    : 0
#TACTLYR     : 0.045
#TALWIND     : 0.004
#CHOFFSET    : 0.0
#XLABEL      : Energy (eV)
#YLABEL      : Counts
#EDSDET      : SDUTW
##DET_HASH   : c6370f9e-cc72-7559-f57e-203d75c8942b
##CALIB_HASH : b2d706fe-df19-4747-f399-990df6ef62be
##SAMPLE     : <BulkSample id="1">\n<mOrientation id="2">\n<double>0.0</double>\n<double>0.0</double>\n<double>-1.0</double>\n</mOrientation>\n</BulkSample>
#SPECTRUM    :
0,
0,
0,
0,
6,
9,
1558,
103934,
42,
275,
582,
2284,
684,
1236,
20977,
5518,
856,
1115,
1311,
2187,
2836,
16204,
12283,
9788,
58005,
7916,
1761,
2684,
18375,
4218,
1660,
5976,
10999,
2549,
1699,
1706,
1754,
1758,
1827,
1782,
1749,
1762,
1789,
1737,
1735,
1793,
1722,
1711,
1702,
1644,
1668,
1691,
1652,
1600,
1535,
1543,
1512,
1519,
2558,
13811,
13342,
2456,
1396,
1892,
3360,
2016,
1252,
1180,
1233,
1291,
4219,
12832,
6345,
1419,
1089,
1073,
1528,
2477,
1715,
975,
870,
937,
889,
901,
887,
829,
823,
854,
771,
761,
782,
757,
754,
743,
694,
736,
704,
687,
705,
673,
670,
628,
683,
659,
612,
620,
632,
552,
578,
547,
566,
550,
601,
544,
561,
542,
508,
500,
506,
515,
480,
471,
466,
484,
477,
470,
460,
521,
1235,
3610,
4851,
2304,
668,
399,
378,
365,
390,
423,
390,
407,
359,
438,
666,
951,
845,
792,
2494,
6082,
5994,
2358,
562,
344,
300,
310,
258,
295,
268,
268,
295,
300,
262,
352,
732,
1046,
872,
415,
244,
205,
227,
210,
203,
204,
204,
188,
192,
202,
185,
192,
177,
186,
166,
151,
160,
177,
154,
143,
153,
170,
168,
145,
144,
136,
130,
137,
129,
132,
110,
102,
117,
98,
97,
117,
106,
101,
120,
109,
91,
106,
91,
72,
98,
72,
94,
82,
60,
81,
74,
75,
71,
69,
67,
70,
83,
59,
62,
56,
56,
51,
66,
49,
51,
44,
49,
41,
52,
32,
39,
44,
37,
45,
46,
47,
43,
41,
24,
38,
40,
25,
35,
23,
23,
27,
26,
29,
34,
23,
29,
16,
18,
22,
15,
15,
10,
16,
18,
16,
14,
15,
13,
10,
9,
6,
10,
10,
18,
6,
7,
10,
5,
5,
5,
0,
4,
2,
5,
7,
2,
4,
1,
0,
0,
0,
1,
0,
#ENDOFDATA   :