File: data/exp_raw/ADM6005a spectra/ADM-6005a_15.msa
#FORMAT      : EMSA/MAS Spectral Data File
#VERSION     : 1.0
#TITLE       : Bruker Nano spectrum Acquisition
#DATE        : 12-JUL-2019
#TIME        : 10:11
#OWNER       : Bruker Nano
#NPOINTS     : 4096
#NCOLUMNS    : 1
#XUNITS      : eV
#YUNITS      : counts
#DATATYPE    : Y
#XPERCHAN    : 5.01716
#OFFSET      : -484.208
#BEAMKV      : 20
#SIGNALTYPE  : EDS
#ELEVANGLE   : 40
#AZIMANGLE   : 45
#LIVETIME    : 100.001
#REALTIME    : 112.166
#PROBECUR    : 5
#TAUWIND     : 0
#TDEADLYR    : 0
#TACTLYR     : 0.045
#TALWIND     : 0.004
#CHOFFSET    : 0.0
#XLABEL      : Energy (eV)
#YLABEL      : Counts
#EDSDET      : SDUTW
##DET_HASH   : c6370f9e-cc72-7559-f57e-203d75c8942b
##CALIB_HASH : b2d706fe-df19-4747-f399-990df6ef62be
##SAMPLE     : <BulkSample id="1">\n<mOrientation id="2">\n<double>0.0</double>\n<double>0.0</double>\n<double>-1.0</double>\n</mOrientation>\n</BulkSample>
#SPECTRUM    :
0,
0,
0,
0,
1,
9,
1464,
103800,
22,
280,
537,
2274,
713,
1299,
21103,
5379,
799,
1101,
1342,
2231,
2841,
16364,
12267,
9876,
57738,
7985,
1805,
2631,
18356,
4275,
1734,
6112,
10955,
2430,
1795,
1709,
1704,
1761,
1730,
1771,
1791,
1773,
1779,
1806,
1799,
1740,
1742,
1740,
1724,
1708,
1639,
1649,
1655,
1600,
1577,
1530,
1472,
1549,
2634,
13765,
13246,
2364,
1399,
1901,
3270,
2031,
1253,
1186,
1205,
1255,
4297,
12935,
6400,
1425,
1065,
1103,
1493,
2457,
1752,
989,
937,
893,
886,
867,
879,
828,
832,
816,
792,
772,
779,
771,
790,
765,
703,
725,
728,
686,
688,
710,
675,
636,
676,
570,
598,
689,
617,
540,
621,
574,
559,
521,
591,
548,
580,
502,
495,
519,
475,
490,
478,
515,
447,
467,
520,
432,
471,
508,
1132,
3619,
4852,
2279,
654,
416,
396,
388,
382,
391,
408,
391,
373,
408,
675,
984,
767,
768,
2465,
6075,
5911,
2290,
580,
309,
307,
304,
278,
290,
277,
257,
266,
274,
249,
378,
706,
1125,
872,
382,
278,
239,
200,
211,
217,
208,
203,
213,
187,
212,
183,
181,
178,
170,
175,
159,
166,
162,
166,
185,
191,
152,
153,
134,
137,
136,
144,
121,
141,
139,
151,
125,
111,
107,
102,
108,
142,
87,
120,
122,
113,
92,
95,
90,
100,
84,
76,
97,
64,
68,
88,
80,
72,
82,
73,
60,
67,
65,
49,
58,
67,
45,
55,
51,
54,
46,
48,
48,
46,
42,
37,
43,
47,
38,
29,
42,
40,
25,
30,
25,
35,
31,
23,
26,
20,
30,
33,
21,
24,
26,
20,
17,
17,
19,
21,
12,
17,
16,
14,
11,
14,
9,
6,
8,
10,
6,
14,
11,
7,
7,
7,
3,
8,
10,
7,
7,
3,
1,
4,
3,
0,
0,
6,
3,
2,
1,
0,
0,
#ENDOFDATA   :