File: data/exp_raw/ADM6005a spectra/ADM-6005a_3.msa
#FORMAT      : EMSA/MAS Spectral Data File
#VERSION     : 1.0
#TITLE       : Bruker Nano spectrum Acquisition
#DATE        : 12-JUL-2019
#TIME        : 09:39
#OWNER       : Bruker Nano
#NPOINTS     : 4096
#NCOLUMNS    : 1
#XUNITS      : eV
#YUNITS      : counts
#DATATYPE    : Y
#XPERCHAN    : 5.01716
#OFFSET      : -484.208
#BEAMKV      : 20
#SIGNALTYPE  : EDS
#ELEVANGLE   : 40
#AZIMANGLE   : 45
#LIVETIME    : 100.001
#REALTIME    : 112.113
#PROBECUR    : 5
#TAUWIND     : 0
#TDEADLYR    : 0
#TACTLYR     : 0.045
#TALWIND     : 0.004
#CHOFFSET    : 0.0
#XLABEL      : Energy (eV)
#YLABEL      : Counts
#EDSDET      : SDUTW
##DET_HASH   : c6370f9e-cc72-7559-f57e-203d75c8942b
##CALIB_HASH : b2d706fe-df19-4747-f399-990df6ef62be
##SAMPLE     : <BulkSample id="1">\n<mOrientation id="2">\n<double>0.0</double>\n<double>0.0</double>\n<double>-1.0</double>\n</mOrientation>\n</BulkSample>
#SPECTRUM    :
0,
0,
0,
0,
4,
7,
1502,
103911,
32,
266,
580,
2197,
734,
1284,
20937,
5539,
837,
1129,
1360,
2164,
2820,
16337,
12257,
9900,
58042,
7979,
1926,
2695,
18299,
4212,
1706,
6026,
10943,
2457,
1754,
1773,
1698,
1752,
1757,
1756,
1790,
1750,
1758,
1727,
1768,
1735,
1707,
1688,
1733,
1705,
1695,
1638,
1613,
1602,
1560,
1509,
1519,
1502,
2617,
14062,
13355,
2350,
1473,
1973,
3393,
1985,
1244,
1233,
1194,
1290,
4263,
12771,
6235,
1409,
1052,
1101,
1488,
2445,
1761,
990,
926,
924,
842,
822,
845,
823,
860,
869,
812,
781,
768,
770,
753,
742,
756,
682,
742,
690,
724,
688,
686,
698,
682,
621,
626,
649,
572,
615,
583,
574,
550,
547,
539,
587,
599,
484,
558,
482,
512,
494,
474,
488,
476,
466,
466,
448,
466,
491,
1136,
3738,
4883,
2325,
673,
391,
426,
393,
389,
371,
393,
366,
417,
425,
694,
945,
813,
807,
2561,
6067,
5924,
2386,
578,
302,
333,
293,
292,
274,
254,
236,
261,
288,
262,
336,
708,
1100,
925,
426,
241,
233,
204,
195,
163,
203,
188,
192,
178,
152,
214,
203,
180,
174,
159,
150,
167,
191,
143,
151,
147,
165,
147,
136,
153,
162,
151,
130,
137,
123,
127,
138,
128,
92,
111,
98,
102,
114,
108,
108,
101,
84,
95,
89,
95,
93,
81,
90,
88,
77,
75,
73,
69,
71,
65,
70,
85,
74,
68,
65,
47,
55,
36,
54,
56,
41,
52,
39,
44,
41,
42,
42,
44,
38,
46,
39,
30,
35,
35,
28,
32,
25,
31,
26,
19,
29,
29,
24,
25,
17,
22,
27,
19,
12,
19,
15,
14,
23,
9,
12,
19,
23,
18,
13,
6,
10,
14,
12,
12,
6,
4,
11,
4,
7,
4,
5,
3,
1,
2,
2,
4,
2,
4,
0,
1,
0,
0,
0,
#ENDOFDATA   :