File: data/exp_raw/ADM6005a spectra/ADM-6005a_1.msa
#FORMAT      : EMSA/MAS Spectral Data File
#VERSION     : 1.0
#TITLE       : Bruker Nano spectrum Acquisition
#DATE        : 12-JUL-2019
#TIME        : 09:33
#OWNER       : Bruker Nano
#NPOINTS     : 4096
#NCOLUMNS    : 1
#XUNITS      : eV
#YUNITS      : counts
#DATATYPE    : Y
#XPERCHAN    : 5.01716
#OFFSET      : -484.208
#BEAMKV      : 20
#SIGNALTYPE  : EDS
#ELEVANGLE   : 40
#AZIMANGLE   : 45
#LIVETIME    : 100.001
#REALTIME    : 112.108
#PROBECUR    : 5
#TAUWIND     : 0
#TDEADLYR    : 0
#TACTLYR     : 0.045
#TALWIND     : 0.004
#CHOFFSET    : 0.0
#XLABEL      : Energy (eV)
#YLABEL      : Counts
#EDSDET      : SDUTW
##DET_HASH   : c6370f9e-cc72-7559-f57e-203d75c8942b
##CALIB_HASH : b2d706fe-df19-4747-f399-990df6ef62be
##SAMPLE     : <BulkSample id="1">\n<mOrientation id="2">\n<double>0.0</double>\n<double>0.0</double>\n<double>-1.0</double>\n</mOrientation>\n</BulkSample>
#SPECTRUM    :
0,
0,
0,
0,
3,
13,
1548,
104598,
23,
267,
608,
2271,
674,
1282,
20795,
5301,
736,
1153,
1339,
2241,
2703,
16258,
12234,
9830,
57898,
7914,
1806,
2838,
18235,
4230,
1783,
6119,
10884,
2369,
1794,
1727,
1700,
1807,
1770,
1799,
1791,
1789,
1753,
1769,
1774,
1774,
1672,
1746,
1675,
1664,
1656,
1616,
1583,
1620,
1597,
1578,
1503,
1507,
2658,
13948,
13556,
2388,
1429,
1897,
3275,
2058,
1259,
1243,
1185,
1292,
4215,
12861,
6435,
1336,
1110,
1093,
1504,
2452,
1749,
971,
889,
898,
910,
890,
857,
842,
848,
797,
812,
801,
812,
778,
753,
780,
746,
738,
711,
763,
651,
721,
643,
653,
641,
636,
601,
634,
647,
578,
573,
582,
578,
540,
604,
598,
535,
524,
506,
577,
524,
565,
488,
462,
458,
428,
488,
455,
447,
504,
1174,
3719,
4869,
2427,
632,
409,
397,
410,
376,
371,
377,
369,
360,
435,
747,
981,
763,
767,
2497,
6087,
5940,
2266,
592,
306,
308,
282,
286,
294,
269,
233,
257,
294,
313,
366,
704,
1057,
899,
418,
267,
238,
214,
219,
193,
205,
195,
176,
181,
178,
173,
192,
166,
150,
167,
180,
156,
171,
159,
156,
157,
142,
134,
138,
122,
131,
114,
113,
133,
136,
122,
121,
109,
127,
114,
122,
118,
104,
116,
89,
89,
94,
96,
75,
92,
103,
110,
85,
84,
86,
78,
82,
70,
66,
40,
64,
72,
86,
49,
55,
66,
54,
60,
59,
52,
53,
56,
38,
53,
32,
56,
46,
45,
36,
42,
42,
36,
42,
26,
29,
29,
30,
26,
25,
30,
19,
25,
20,
28,
21,
27,
24,
23,
19,
22,
18,
22,
16,
18,
6,
12,
15,
11,
11,
11,
14,
10,
10,
10,
9,
1,
6,
5,
10,
6,
4,
4,
2,
1,
1,
0,
2,
1,
4,
0,
0,
0,
0,
#ENDOFDATA   :