File: data/exp_raw/ADM6005a spectra/ADM-6005a_2.msa
#FORMAT      : EMSA/MAS Spectral Data File
#VERSION     : 1.0
#TITLE       : Bruker Nano spectrum Acquisition
#DATE        : 12-JUL-2019
#TIME        : 09:36
#OWNER       : Bruker Nano
#NPOINTS     : 4096
#NCOLUMNS    : 1
#XUNITS      : eV
#YUNITS      : counts
#DATATYPE    : Y
#XPERCHAN    : 5.01716
#OFFSET      : -484.208
#BEAMKV      : 20
#SIGNALTYPE  : EDS
#ELEVANGLE   : 40
#AZIMANGLE   : 45
#LIVETIME    : 100.001
#REALTIME    : 112.082
#PROBECUR    : 5
#TAUWIND     : 0
#TDEADLYR    : 0
#TACTLYR     : 0.045
#TALWIND     : 0.004
#CHOFFSET    : 0.0
#XLABEL      : Energy (eV)
#YLABEL      : Counts
#EDSDET      : SDUTW
##DET_HASH   : c6370f9e-cc72-7559-f57e-203d75c8942b
##CALIB_HASH : b2d706fe-df19-4747-f399-990df6ef62be
##SAMPLE     : <BulkSample id="1">\n<mOrientation id="2">\n<double>0.0</double>\n<double>0.0</double>\n<double>-1.0</double>\n</mOrientation>\n</BulkSample>
#SPECTRUM    :
0,
0,
0,
0,
2,
14,
1524,
104019,
31,
259,
534,
2311,
711,
1353,
21148,
5452,
788,
1140,
1347,
2209,
2709,
16365,
12288,
9892,
58209,
7907,
1878,
2671,
18313,
4268,
1815,
5999,
10942,
2356,
1714,
1754,
1732,
1709,
1773,
1752,
1777,
1780,
1732,
1763,
1837,
1782,
1715,
1765,
1687,
1718,
1664,
1649,
1620,
1573,
1580,
1533,
1500,
1527,
2591,
13844,
13461,
2288,
1489,
1947,
3270,
1993,
1266,
1221,
1207,
1320,
4185,
12429,
6303,
1400,
1078,
1068,
1467,
2491,
1752,
1006,
953,
944,
908,
902,
868,
871,
830,
814,
810,
810,
788,
781,
782,
754,
742,
716,
705,
662,
746,
737,
662,
630,
619,
652,
627,
621,
575,
608,
627,
583,
553,
590,
576,
572,
567,
494,
480,
482,
510,
492,
505,
448,
500,
485,
414,
495,
455,
501,
1250,
3722,
4880,
2283,
670,
433,
415,
411,
394,
362,
346,
379,
369,
395,
649,
962,
844,
712,
2445,
6027,
6010,
2331,
571,
324,
300,
258,
287,
292,
287,
303,
278,
305,
280,
364,
704,
1066,
905,
432,
267,
215,
216,
203,
191,
199,
206,
185,
192,
181,
177,
167,
161,
150,
165,
140,
140,
165,
145,
153,
143,
131,
154,
115,
161,
137,
138,
128,
134,
139,
122,
138,
112,
117,
117,
106,
103,
100,
114,
101,
97,
95,
91,
96,
100,
90,
93,
73,
75,
83,
66,
84,
69,
75,
59,
59,
68,
62,
46,
55,
74,
63,
65,
67,
51,
62,
43,
46,
64,
40,
31,
32,
32,
35,
40,
46,
37,
36,
27,
41,
35,
31,
32,
12,
32,
25,
22,
28,
25,
26,
27,
11,
24,
27,
26,
18,
18,
17,
20,
7,
8,
14,
6,
11,
15,
10,
9,
9,
10,
6,
3,
8,
1,
6,
8,
4,
4,
1,
4,
5,
1,
0,
0,
0,
3,
0,
0,
0,
#ENDOFDATA   :