File: data/exp_raw/ADM6005a spectra/ADM-6005a_6.msa
#FORMAT      : EMSA/MAS Spectral Data File
#VERSION     : 1.0
#TITLE       : Bruker Nano spectrum Acquisition
#DATE        : 12-JUL-2019
#TIME        : 09:49
#OWNER       : Bruker Nano
#NPOINTS     : 4096
#NCOLUMNS    : 1
#XUNITS      : eV
#YUNITS      : counts
#DATATYPE    : Y
#XPERCHAN    : 5.01716
#OFFSET      : -484.208
#BEAMKV      : 20
#SIGNALTYPE  : EDS
#ELEVANGLE   : 40
#AZIMANGLE   : 45
#LIVETIME    : 100.001
#REALTIME    : 112.131
#PROBECUR    : 5
#TAUWIND     : 0
#TDEADLYR    : 0
#TACTLYR     : 0.045
#TALWIND     : 0.004
#CHOFFSET    : 0.0
#XLABEL      : Energy (eV)
#YLABEL      : Counts
#EDSDET      : SDUTW
##DET_HASH   : c6370f9e-cc72-7559-f57e-203d75c8942b
##CALIB_HASH : b2d706fe-df19-4747-f399-990df6ef62be
##SAMPLE     : <BulkSample id="1">\n<mOrientation id="2">\n<double>0.0</double>\n<double>0.0</double>\n<double>-1.0</double>\n</mOrientation>\n</BulkSample>
#SPECTRUM    :
0,
0,
0,
0,
2,
14,
1499,
104326,
35,
267,
539,
2304,
681,
1274,
21014,
5386,
784,
1083,
1380,
2232,
2713,
16369,
12277,
9932,
57733,
7941,
1875,
2635,
18445,
4262,
1629,
6081,
10956,
2443,
1695,
1744,
1758,
1723,
1782,
1798,
1730,
1729,
1750,
1745,
1776,
1756,
1699,
1762,
1776,
1711,
1663,
1564,
1644,
1624,
1617,
1562,
1490,
1522,
2688,
13824,
13014,
2315,
1405,
1965,
3199,
2025,
1290,
1227,
1194,
1233,
4284,
12787,
6478,
1401,
1072,
1059,
1503,
2439,
1711,
923,
959,
870,
898,
890,
846,
830,
876,
816,
796,
795,
771,
763,
769,
759,
696,
733,
713,
754,
687,
705,
703,
667,
665,
677,
658,
618,
584,
663,
581,
573,
527,
549,
594,
582,
570,
530,
480,
516,
493,
483,
468,
487,
475,
477,
477,
507,
406,
505,
1204,
3696,
4885,
2381,
658,
424,
408,
402,
390,
328,
373,
371,
346,
411,
665,
978,
837,
735,
2451,
6006,
5976,
2401,
567,
325,
311,
292,
288,
309,
289,
280,
292,
252,
277,
348,
671,
1049,
920,
428,
255,
209,
215,
208,
232,
214,
216,
192,
206,
195,
195,
204,
158,
174,
165,
178,
158,
161,
176,
136,
139,
149,
129,
141,
137,
147,
127,
112,
122,
115,
115,
117,
112,
118,
102,
115,
120,
114,
106,
113,
85,
91,
85,
85,
81,
91,
95,
83,
59,
74,
68,
61,
77,
67,
83,
73,
75,
78,
70,
60,
50,
71,
46,
57,
54,
65,
48,
50,
39,
47,
51,
41,
36,
42,
44,
31,
26,
38,
27,
28,
43,
31,
22,
27,
29,
23,
24,
28,
16,
19,
26,
19,
20,
20,
15,
21,
14,
11,
12,
10,
8,
16,
15,
11,
8,
10,
9,
9,
6,
9,
8,
5,
9,
6,
1,
5,
2,
3,
4,
2,
2,
1,
0,
1,
0,
0,
0,
0,
#ENDOFDATA   :