File: data/exp_raw/ADM6005a spectra/ADM-6005a_12.msa
#FORMAT      : EMSA/MAS Spectral Data File
#VERSION     : 1.0
#TITLE       : Bruker Nano spectrum Acquisition
#DATE        : 12-JUL-2019
#TIME        : 10:04
#OWNER       : Bruker Nano
#NPOINTS     : 4096
#NCOLUMNS    : 1
#XUNITS      : eV
#YUNITS      : counts
#DATATYPE    : Y
#XPERCHAN    : 5.01716
#OFFSET      : -484.208
#BEAMKV      : 20
#SIGNALTYPE  : EDS
#ELEVANGLE   : 40
#AZIMANGLE   : 45
#LIVETIME    : 100.001
#REALTIME    : 112.145
#PROBECUR    : 5
#TAUWIND     : 0
#TDEADLYR    : 0
#TACTLYR     : 0.045
#TALWIND     : 0.004
#CHOFFSET    : 0.0
#XLABEL      : Energy (eV)
#YLABEL      : Counts
#EDSDET      : SDUTW
##DET_HASH   : c6370f9e-cc72-7559-f57e-203d75c8942b
##CALIB_HASH : b2d706fe-df19-4747-f399-990df6ef62be
##SAMPLE     : <BulkSample id="1">\n<mOrientation id="2">\n<double>0.0</double>\n<double>0.0</double>\n<double>-1.0</double>\n</mOrientation>\n</BulkSample>
#SPECTRUM    :
0,
0,
0,
0,
5,
8,
1485,
104251,
33,
256,
556,
2273,
710,
1326,
21128,
5437,
840,
1107,
1321,
2245,
2717,
16252,
12378,
9833,
57920,
7888,
1876,
2748,
18413,
4291,
1695,
6007,
10926,
2448,
1689,
1720,
1785,
1782,
1757,
1738,
1744,
1783,
1773,
1736,
1793,
1767,
1758,
1724,
1747,
1690,
1687,
1709,
1617,
1641,
1579,
1574,
1513,
1599,
2611,
13961,
13407,
2383,
1400,
1935,
3276,
2091,
1258,
1224,
1204,
1303,
4125,
12707,
6360,
1365,
1117,
1068,
1524,
2378,
1730,
993,
921,
894,
889,
902,
842,
877,
899,
831,
792,
770,
810,
764,
785,
748,
751,
763,
754,
739,
747,
670,
680,
683,
686,
610,
602,
590,
594,
628,
572,
575,
541,
535,
577,
653,
592,
549,
485,
554,
533,
510,
528,
478,
479,
447,
449,
443,
494,
523,
1227,
3600,
4803,
2282,
725,
419,
413,
382,
358,
381,
379,
379,
404,
469,
721,
936,
775,
752,
2462,
6096,
5982,
2287,
568,
340,
303,
240,
293,
269,
251,
260,
278,
276,
273,
369,
732,
1065,
884,
432,
287,
218,
210,
200,
214,
199,
201,
244,
192,
203,
177,
178,
182,
186,
145,
157,
153,
151,
165,
145,
123,
165,
140,
154,
155,
125,
125,
116,
124,
133,
135,
126,
98,
127,
112,
98,
86,
105,
101,
104,
84,
88,
103,
97,
84,
97,
84,
92,
78,
95,
65,
91,
56,
80,
73,
47,
79,
66,
58,
51,
49,
43,
48,
59,
54,
53,
42,
48,
47,
51,
41,
46,
59,
35,
36,
34,
31,
32,
28,
40,
42,
30,
29,
19,
21,
37,
25,
17,
30,
24,
32,
15,
21,
11,
12,
17,
22,
16,
13,
18,
9,
12,
13,
9,
8,
11,
1,
10,
10,
10,
6,
6,
5,
8,
5,
3,
5,
8,
6,
1,
2,
4,
0,
2,
0,
2,
0,
0,
#ENDOFDATA   :