File: data/exp_raw/ADM6005a spectra/Al std.msa
#FORMAT      : EMSA/MAS Spectral Data File
#VERSION     : 1.0
#TITLE       : Bruker Nano spectrum Acquisition
#DATE        : 12-JUL-2019
#TIME        : 10:24
#OWNER       : Bruker Nano
#NPOINTS     : 4096
#NCOLUMNS    : 1
#XUNITS      : eV
#YUNITS      : counts
#DATATYPE    : Y
#XPERCHAN    : 5.01623
#OFFSET      : -484.154
#BEAMKV      : 20
#SIGNALTYPE  : EDS
#ELEVANGLE   : 40
#AZIMANGLE   : 45
#LIVETIME    : 100.001
#REALTIME    : 131.658
#PROBECUR    : 5
#TAUWIND     : 0
#TDEADLYR    : 0
#TACTLYR     : 0.045
#TALWIND     : 0.004
#CHOFFSET    : 0.0
#XLABEL      : Energy (eV)
#YLABEL      : Counts
#EDSDET      : SDUTW
##D2STDCMP   : Al,(Al:100.0),2.7
##DET_HASH   : c6370f9e-cc72-7559-f57e-203d75c8942b
##CALIB_HASH : 54ef92dd-c85a-cbea-898e-ee7ceef4355d
##SAMPLE     : <BulkSample id="1">\n<mOrientation id="2">\n<double>0.0</double>\n<double>0.0</double>\n<double>-1.0</double>\n</mOrientation>\n</BulkSample>
#SPECTRUM    :
0,
0,
0,
0,
8,
36,
3787,
278802,
115,
362,
619,
2553,
445,
562,
2079,
1202,
1426,
1794,
2110,
2613,
2882,
3150,
3293,
3620,
4294,
5156,
6864,
45222,
620337,
90051,
3490,
1241,
1231,
811,
856,
897,
932,
909,
915,
963,
1008,
1000,
922,
970,
958,
974,
957,
919,
909,
916,
911,
905,
953,
976,
946,
910,
915,
914,
945,
975,
951,
845,
846,
846,
844,
800,
765,
834,
749,
781,
738,
732,
723,
693,
696,
685,
683,
676,
628,
656,
626,
584,
586,
577,
608,
577,
569,
543,
512,
517,
514,
507,
449,
461,
528,
474,
480,
461,
456,
492,
421,
406,
375,
404,
439,
387,
320,
373,
359,
395,
404,
359,
409,
370,
348,
349,
319,
366,
323,
320,
357,
310,
334,
296,
279,
258,
271,
293,
280,
300,
273,
252,
257,
268,
229,
236,
218,
200,
217,
241,
216,
202,
205,
212,
224,
192,
200,
194,
204,
207,
178,
189,
183,
160,
169,
204,
155,
172,
176,
166,
160,
149,
140,
157,
151,
134,
140,
116,
124,
131,
137,
115,
130,
128,
122,
115,
114,
105,
103,
109,
116,
98,
104,
94,
97,
95,
73,
89,
96,
92,
80,
91,
67,
74,
70,
67,
68,
62,
65,
66,
65,
62,
72,
53,
70,
56,
59,
50,
72,
47,
55,
46,
43,
59,
49,
44,
42,
39,
38,
43,
40,
33,
35,
37,
39,
25,
34,
36,
31,
23,
17,
22,
28,
18,
17,
27,
22,
21,
17,
9,
18,
18,
15,
18,
15,
15,
13,
15,
17,
10,
13,
15,
14,
13,
14,
14,
12,
15,
10,
14,
9,
4,
9,
8,
3,
7,
12,
4,
7,
8,
3,
3,
3,
4,
2,
3,
2,
4,
3,
4,
4,
2,
1,
1,
1,
1,
0,
0,
1,
1,
1,
0,
1,
0,
#ENDOFDATA   :