File: data/exp_raw/ADM6005a spectra/CaF2 std.msa
#FORMAT      : EMSA/MAS Spectral Data File
#VERSION     : 1.0
#TITLE       : Bruker Nano spectrum Acquisition
#DATE        : 08-MAR-2019
#TIME        : 09:25
#OWNER       : Bruker Nano
#NPOINTS     : 4096
#NCOLUMNS    : 1
#XUNITS      : eV
#YUNITS      : counts
#DATATYPE    : Y
#XPERCHAN    : 5.00258
#OFFSET      : -483.028
#BEAMKV      : 20
#SIGNALTYPE  : EDS
#ELEVANGLE   : 40
#AZIMANGLE   : 45
#LIVETIME    : 100
#REALTIME    : 106.743
#PROBECUR    : 2.5
#TAUWIND     : 0
#TDEADLYR    : 0
#TACTLYR     : 0.045
#TALWIND     : 0.004
#CHOFFSET    : 0.0
#XLABEL      : Energy (eV)
#YLABEL      : Counts
#EDSDET      : SDUTW
##D2STDCMP   : CaF2,(F:48.6667),(Ca:51.3333),3.18
##DET_HASH   : c6370f9e-cc72-7559-f57e-203d75c8942b
##CALIB_HASH : ed56667e-fa06-fe77-7dea-269296c34ddc
##SAMPLE     : <BulkSample id="1">\n<mOrientation id="2">\n<double>0.0</double>\n<double>0.0</double>\n<double>-1.0</double>\n</mOrientation>\n</BulkSample>
#SPECTRUM    :
0,
0,
0,
0,
2,
3,
692,
52465,
6,
171,
369,
1819,
564,
219,
350,
465,
9376,
11512,
392,
382,
438,
549,
589,
699,
773,
884,
886,
950,
977,
966,
1006,
1005,
1049,
1035,
970,
1100,
1003,
1026,
1014,
960,
982,
995,
917,
916,
939,
890,
871,
834,
848,
872,
821,
823,
809,
790,
760,
770,
735,
864,
3939,
44944,
55278,
6197,
872,
2527,
8454,
4335,
656,
394,
394,
390,
422,
425,
419,
392,
373,
389,
371,
372,
351,
351,
382,
354,
354,
344,
353,
326,
319,
319,
300,
305,
307,
288,
298,
266,
287,
255,
275,
242,
286,
265,
244,
267,
250,
245,
252,
245,
256,
237,
237,
216,
213,
205,
212,
209,
204,
221,
206,
198,
194,
182,
190,
179,
187,
179,
185,
177,
165,
152,
177,
153,
165,
147,
174,
151,
149,
160,
140,
143,
128,
156,
155,
141,
120,
120,
131,
108,
117,
116,
126,
109,
87,
106,
122,
115,
112,
102,
100,
113,
106,
84,
104,
100,
107,
95,
81,
88,
87,
94,
76,
74,
72,
69,
91,
70,
67,
88,
84,
66,
73,
92,
65,
59,
68,
73,
56,
60,
56,
60,
64,
62,
57,
51,
32,
50,
47,
46,
50,
53,
39,
41,
44,
48,
31,
43,
42,
29,
39,
43,
33,
33,
29,
18,
34,
33,
28,
35,
23,
37,
26,
20,
35,
21,
23,
23,
23,
25,
24,
23,
31,
13,
31,
28,
15,
21,
17,
25,
17,
13,
18,
7,
12,
9,
13,
15,
15,
10,
19,
7,
10,
14,
6,
8,
7,
15,
9,
15,
3,
11,
4,
12,
5,
9,
7,
9,
6,
3,
5,
5,
5,
6,
3,
5,
5,
2,
4,
2,
3,
4,
4,
2,
1,
1,
2,
2,
1,
1,
1,
2,
1,
2,
0,
1,
0,
0,
#ENDOFDATA   :