File: data/exp_raw/ADM6005a spectra/Fe std.msa
#FORMAT      : EMSA/MAS Spectral Data File
#VERSION     : 1.0
#TITLE       : Bruker Nano spectrum Acquisition
#DATE        : 06-MAR-2019
#TIME        : 03:32
#OWNER       : Bruker Nano
#NPOINTS     : 4096
#NCOLUMNS    : 1
#XUNITS      : eV
#YUNITS      : counts
#DATATYPE    : Y
#XPERCHAN    : 5.00258
#OFFSET      : -483.028
#BEAMKV      : 20
#SIGNALTYPE  : EDS
#ELEVANGLE   : 40
#AZIMANGLE   : 45
#LIVETIME    : 100
#REALTIME    : 108.811
#PROBECUR    : 2.5
#TAUWIND     : 0
#TDEADLYR    : 0
#TACTLYR     : 0.045
#TALWIND     : 0.004
#CHOFFSET    : 0.0
#XLABEL      : Energy (eV)
#YLABEL      : Counts
#EDSDET      : SDUTW
##D2STDCMP   : Fe,(Fe:100.0),7.87
##DET_HASH   : c6370f9e-cc72-7559-f57e-203d75c8942b
##CALIB_HASH : ed56667e-fa06-fe77-7dea-269296c34ddc
##SAMPLE     : <BulkSample id="1">\n<mOrientation id="2">\n<double>0.0</double>\n<double>0.0</double>\n<double>-1.0</double>\n</mOrientation>\n</BulkSample>
#SPECTRUM    :
0,
0,
0,
0,
0,
9,
856,
70231,
12,
211,
438,
2009,
458,
675,
1483,
3612,
10386,
30227,
1198,
494,
504,
565,
656,
720,
794,
925,
990,
1027,
1043,
1116,
1066,
1228,
1306,
1204,
1216,
1284,
1281,
1317,
1296,
1347,
1359,
1331,
1237,
1352,
1307,
1306,
1330,
1228,
1269,
1261,
1255,
1161,
1191,
1203,
1165,
1094,
1121,
1093,
1106,
1071,
1057,
1045,
980,
1017,
975,
932,
969,
923,
852,
853,
850,
888,
841,
847,
835,
796,
780,
785,
719,
743,
739,
745,
687,
652,
683,
671,
669,
671,
624,
587,
693,
643,
606,
631,
650,
693,
1876,
16645,
49705,
31857,
4870,
712,
549,
530,
500,
687,
1649,
5692,
6050,
1970,
488,
348,
355,
359,
350,
306,
318,
341,
328,
326,
313,
314,
316,
302,
280,
301,
304,
286,
275,
279,
298,
249,
286,
274,
282,
275,
257,
286,
284,
271,
260,
248,
233,
243,
243,
219,
242,
223,
238,
201,
198,
223,
193,
201,
204,
214,
190,
203,
203,
217,
189,
183,
212,
168,
190,
162,
160,
171,
164,
177,
160,
163,
160,
141,
172,
144,
166,
158,
128,
144,
155,
134,
139,
144,
137,
117,
122,
108,
118,
114,
106,
118,
118,
114,
92,
117,
109,
84,
95,
68,
86,
97,
84,
77,
117,
64,
78,
64,
76,
60,
80,
67,
57,
70,
71,
68,
69,
68,
58,
63,
61,
50,
54,
63,
53,
45,
49,
43,
37,
56,
41,
46,
51,
39,
35,
31,
39,
46,
23,
35,
35,
34,
33,
30,
24,
33,
35,
23,
26,
23,
24,
17,
26,
23,
21,
17,
26,
10,
17,
22,
16,
14,
17,
17,
12,
9,
6,
6,
11,
8,
12,
6,
10,
7,
5,
7,
6,
3,
3,
5,
4,
6,
5,
3,
0,
2,
0,
1,
0,
1,
0,
0,
1,
0,
#ENDOFDATA   :