File: data/exp_raw/ADM6005a spectra/Ge std.msa
#FORMAT      : EMSA/MAS Spectral Data File
#VERSION     : 1.0
#TITLE       : Bruker Nano spectrum Acquisition
#DATE        : 12-JUL-2019
#TIME        : 10:33
#OWNER       : Bruker Nano
#NPOINTS     : 4096
#NCOLUMNS    : 1
#XUNITS      : eV
#YUNITS      : counts
#DATATYPE    : Y
#XPERCHAN    : 5.01623
#OFFSET      : -484.154
#BEAMKV      : 20
#SIGNALTYPE  : EDS
#ELEVANGLE   : 40
#AZIMANGLE   : 45
#LIVETIME    : 100.001
#REALTIME    : 124.903
#PROBECUR    : 5
#TAUWIND     : 0
#TDEADLYR    : 0
#TACTLYR     : 0.045
#TALWIND     : 0.004
#CHOFFSET    : 0.0
#XLABEL      : Energy (eV)
#YLABEL      : Counts
#EDSDET      : SDUTW
##D2STDCMP   : Ge,(Ge:100.0),5.32
##DET_HASH   : c6370f9e-cc72-7559-f57e-203d75c8942b
##CALIB_HASH : 54ef92dd-c85a-cbea-898e-ee7ceef4355d
##SAMPLE     : <BulkSample id="1">\n<mOrientation id="2">\n<double>0.0</double>\n<double>0.0</double>\n<double>-1.0</double>\n</mOrientation>\n</BulkSample>
#SPECTRUM    :
0,
0,
0,
0,
7,
41,
3320,
207017,
83,
441,
855,
3577,
669,
876,
1768,
1592,
2210,
2835,
3465,
4191,
4944,
9720,
21554,
51788,
310437,
26774,
2391,
1586,
1529,
1453,
1521,
1677,
1855,
1781,
1779,
1999,
1939,
1981,
1960,
2064,
1997,
2182,
2201,
2325,
2179,
2236,
2251,
2287,
2281,
2315,
2253,
2201,
2222,
2198,
2204,
2209,
2199,
2100,
2080,
2154,
2144,
2066,
2044,
2012,
1942,
1917,
1849,
1894,
1817,
1837,
1824,
1822,
1713,
1729,
1686,
1662,
1631,
1629,
1591,
1557,
1493,
1467,
1446,
1470,
1404,
1457,
1331,
1296,
1330,
1293,
1359,
1333,
1249,
1365,
1141,
1206,
1225,
1152,
1153,
1153,
1151,
1081,
1068,
1088,
1067,
992,
1051,
983,
964,
921,
952,
922,
997,
893,
1005,
927,
917,
945,
839,
891,
866,
832,
853,
785,
848,
808,
788,
804,
781,
778,
709,
740,
720,
713,
678,
716,
640,
652,
621,
630,
629,
644,
645,
645,
767,
1828,
8773,
22468,
22205,
8150,
1572,
627,
530,
538,
557,
490,
525,
529,
470,
493,
530,
820,
2122,
3601,
2825,
1224,
572,
417,
366,
351,
332,
346,
315,
330,
314,
335,
296,
344,
335,
312,
292,
281,
268,
268,
293,
265,
275,
267,
268,
234,
257,
237,
259,
250,
221,
232,
208,
243,
231,
229,
213,
226,
190,
181,
208,
181,
210,
181,
184,
170,
178,
158,
150,
190,
144,
140,
142,
141,
138,
149,
114,
138,
129,
114,
126,
122,
121,
128,
113,
116,
111,
88,
103,
85,
94,
97,
95,
85,
74,
80,
77,
58,
72,
49,
65,
55,
60,
67,
54,
62,
55,
46,
39,
68,
49,
46,
52,
42,
27,
47,
33,
45,
27,
32,
23,
32,
24,
31,
35,
23,
33,
21,
24,
21,
26,
10,
15,
19,
14,
15,
22,
10,
11,
8,
12,
5,
10,
9,
5,
0,
0,
0,
1,
0,
#ENDOFDATA   :