File: data/exp_raw/ADM6005a spectra/Si std.msa
#FORMAT      : EMSA/MAS Spectral Data File
#VERSION     : 1.0
#TITLE       : Bruker Nano spectrum Acquisition
#DATE        : 12-JUL-2019
#TIME        : 10:20
#OWNER       : Bruker Nano
#NPOINTS     : 4096
#NCOLUMNS    : 1
#XUNITS      : eV
#YUNITS      : counts
#DATATYPE    : Y
#XPERCHAN    : 5.01623
#OFFSET      : -484.154
#BEAMKV      : 20
#SIGNALTYPE  : EDS
#ELEVANGLE   : 40
#AZIMANGLE   : 45
#LIVETIME    : 100.001
#REALTIME    : 129.984
#PROBECUR    : 5
#TAUWIND     : 0
#TDEADLYR    : 0
#TACTLYR     : 0.045
#TALWIND     : 0.004
#CHOFFSET    : 0.0
#XLABEL      : Energy (eV)
#YLABEL      : Counts
#EDSDET      : SDUTW
##D2STDCMP   : Si,(Si:100.0),2.33
##DET_HASH   : c6370f9e-cc72-7559-f57e-203d75c8942b
##CALIB_HASH : 54ef92dd-c85a-cbea-898e-ee7ceef4355d
##SAMPLE     : <BulkSample id="1">\n<mOrientation id="2">\n<double>0.0</double>\n<double>0.0</double>\n<double>-1.0</double>\n</mOrientation>\n</BulkSample>
#SPECTRUM    :
0,
0,
0,
0,
9,
38,
3833,
278587,
143,
349,
518,
2564,
387,
477,
1106,
932,
1129,
1611,
2019,
2381,
2577,
2876,
2998,
3183,
3264,
3463,
3654,
3899,
4818,
5170,
6223,
212300,
429662,
35661,
4220,
988,
885,
833,
851,
882,
958,
940,
957,
1003,
977,
962,
958,
936,
984,
981,
1014,
1004,
954,
947,
922,
893,
903,
901,
890,
918,
933,
867,
893,
850,
865,
869,
840,
807,
812,
774,
775,
829,
805,
760,
750,
698,
739,
670,
714,
691,
643,
651,
604,
622,
605,
603,
583,
612,
606,
584,
576,
540,
551,
563,
478,
515,
529,
532,
496,
476,
481,
480,
395,
429,
404,
424,
420,
462,
419,
393,
397,
384,
407,
401,
383,
324,
341,
385,
375,
327,
372,
370,
363,
295,
289,
322,
317,
308,
329,
297,
302,
283,
277,
272,
277,
284,
260,
246,
274,
241,
258,
217,
238,
242,
213,
244,
181,
215,
192,
201,
198,
205,
190,
196,
190,
203,
168,
175,
183,
177,
169,
148,
169,
170,
159,
142,
179,
172,
119,
155,
171,
140,
147,
138,
152,
138,
136,
95,
133,
136,
94,
112,
124,
98,
116,
110,
91,
102,
110,
102,
78,
96,
92,
77,
85,
77,
77,
70,
81,
76,
75,
81,
72,
69,
65,
64,
45,
57,
56,
55,
60,
59,
69,
45,
57,
53,
46,
52,
44,
53,
51,
44,
38,
46,
32,
45,
35,
38,
32,
27,
27,
47,
28,
26,
24,
33,
31,
33,
25,
26,
24,
18,
28,
16,
22,
14,
20,
18,
18,
18,
29,
15,
15,
19,
10,
8,
26,
8,
15,
12,
2,
8,
9,
7,
12,
7,
13,
8,
10,
7,
4,
9,
4,
3,
6,
5,
4,
5,
3,
5,
2,
2,
2,
2,
4,
1,
1,
2,
0,
1,
2,
3,
1,
0,
#ENDOFDATA   :