File: data/exp_raw/ADM6005a spectra/SiO2 std.msa
#FORMAT      : EMSA/MAS Spectral Data File
#VERSION     : 1.0
#TITLE       : Bruker Nano spectrum Acquisition
#DATE        : 12-JUL-2019
#TIME        : 10:45
#OWNER       : Bruker Nano
#NPOINTS     : 4096
#NCOLUMNS    : 1
#XUNITS      : eV
#YUNITS      : counts
#DATATYPE    : Y
#XPERCHAN    : 5.01623
#OFFSET      : -484.154
#BEAMKV      : 20
#SIGNALTYPE  : EDS
#ELEVANGLE   : 40
#AZIMANGLE   : 45
#LIVETIME    : 100
#REALTIME    : 113.037
#PROBECUR    : 5
#TAUWIND     : 0
#TDEADLYR    : 0
#TACTLYR     : 0.045
#TALWIND     : 0.004
#CHOFFSET    : 0.0
#XLABEL      : Energy (eV)
#YLABEL      : Counts
#EDSDET      : SDUTW
##D2STDCMP   : SiO2,(O:53.2565),(Si:46.7435),2.63
##DET_HASH   : c6370f9e-cc72-7559-f57e-203d75c8942b
##CALIB_HASH : 54ef92dd-c85a-cbea-898e-ee7ceef4355d
##SAMPLE     : <BulkSample id="1">\n<mOrientation id="2">\n<double>0.0</double>\n<double>0.0</double>\n<double>-1.0</double>\n</mOrientation>\n</BulkSample>
#SPECTRUM    :
0,
0,
0,
0,
0,
8,
1620,
119775,
31,
248,
459,
2321,
430,
1032,
41867,
10105,
546,
658,
756,
994,
1071,
1281,
1400,
1498,
1680,
1798,
1905,
2218,
2569,
2720,
3035,
83113,
175892,
14031,
1987,
980,
948,
952,
1061,
1024,
1031,
1010,
1012,
969,
1023,
984,
978,
1000,
954,
938,
944,
925,
915,
898,
898,
858,
800,
794,
797,
893,
879,
763,
745,
733,
768,
681,
718,
684,
671,
646,
664,
665,
676,
590,
615,
568,
597,
575,
539,
548,
513,
528,
504,
528,
454,
491,
443,
466,
449,
434,
440,
402,
449,
422,
437,
411,
411,
369,
338,
357,
386,
383,
385,
341,
344,
289,
350,
338,
317,
290,
299,
258,
290,
322,
311,
295,
266,
262,
262,
288,
237,
249,
256,
247,
244,
229,
242,
211,
204,
250,
223,
194,
229,
226,
189,
242,
187,
170,
174,
162,
175,
183,
177,
183,
169,
203,
163,
150,
152,
158,
141,
150,
138,
152,
150,
130,
143,
127,
131,
139,
113,
143,
131,
106,
121,
126,
109,
102,
120,
98,
108,
130,
88,
97,
93,
99,
97,
83,
79,
91,
64,
80,
69,
79,
78,
66,
69,
73,
72,
72,
71,
75,
56,
71,
51,
65,
62,
54,
49,
52,
55,
52,
44,
60,
37,
44,
47,
57,
41,
41,
38,
48,
34,
36,
42,
33,
40,
39,
36,
30,
20,
33,
37,
24,
23,
25,
29,
24,
23,
33,
17,
21,
25,
19,
23,
25,
17,
24,
10,
13,
17,
13,
13,
8,
12,
11,
14,
8,
23,
12,
12,
6,
13,
11,
13,
7,
11,
6,
4,
6,
8,
8,
7,
7,
4,
14,
2,
6,
8,
3,
5,
7,
1,
1,
3,
6,
2,
3,
2,
5,
2,
4,
0,
3,
0,
0,
0,
0,
1,
0,
0,
0,
0,
0,
#ENDOFDATA   :