File: data/exp_raw/ADM6005a spectra/Ti trimmed.msa
#FORMAT      : EMSA/MAS Spectral Data File
#VERSION     : 1.0
#TITLE       : Bruker Nano spectrum Acquisition
#DATE        : 12-JUL-2019
#TIME        : 10:29
#OWNER       : Bruker Nano
#NPOINTS     : 4096
#NCOLUMNS    : 1
#XUNITS      : eV
#YUNITS      : counts
#DATATYPE    : Y
#XPERCHAN    : 5.00558
#OFFSET      : -481.931
#BEAMKV      : 20
#SIGNALTYPE  : EDS
#ELEVANGLE   : 40
#AZIMANGLE   : 180
#LIVETIME    : 100.001
#REALTIME    : 119.087
#PROBECUR    : 5
#TAUWIND     : 0
#TDEADLYR    : 0.00001
#TACTLYR     : 0.045
#TALWIND     : 0.003
#CHOFFSET    : 0.0
#XLABEL      : Energy (eV)
#YLABEL      : Counts
#EDSDET      : SDUTW
##SPECIMEN   : Trimmed[Ti std,196 eV,326 eV]
##D2STDCMP   : Ti,(Ti:100.0),4.5
##DET_HASH   : 787abefa-8318-6950-113a-0b12cd5d2e3f
##CALIB_HASH : bf9d58b5-ed5c-0618-2474-e45ee23fbd69
##SAMPLE     : <BulkSample id="1">\n<mOrientation id="2">\n<double>0.0</double>\n<double>0.0</double>\n<double>-1.0</double>\n</mOrientation>\n</BulkSample>
#SPECTRUM    :
0,
0,
0,
0,
4,
39,
2514,
165525,
54,
241,
579.399,
1029.49,
5627,
10564,
2216,
602,
461,
678,
811,
1120,
1240,
1491,
1725,
1842,
1996,
2306,
2332,
2428,
2520,
2535,
2525,
2653,
2881,
2674,
2617,
2674,
2741,
2630,
2511,
2604,
2664,
2484,
2580,
2481,
2352,
2469,
2289,
2452,
2247,
2255,
2227,
2168,
2088,
2119,
2059,
1975,
1948,
1905,
1876,
1952,
1969,
1855,
1845,
1778,
1714,
1668,
1630,
1587,
1828,
3892,
50140,
183744,
84526,
6455,
1806,
2230,
8478,
23407,
11971,
1787,
873,
800,
833,
827,
784,
803,
834,
767,
745,
767,
767,
766,
799,
741,
714,
734,
667,
733,
769,
750,
645,
634,
696,
683,
666,
630,
593,
643,
599,
669,
612,
604,
615,
575,
588,
593,
547,
566,
546,
578,
542,
527,
504,
554,
552,
532,
522,
476,
484,
472,
494,
445,
449,
432,
402,
423,
421,
410,
453,
399,
391,
373,
390,
365,
422,
403,
385,
372,
363,
367,
354,
341,
358,
307,
335,
346,
313,
341,
321,
329,
320,
266,
293,
283,
313,
270,
259,
267,
296,
270,
249,
253,
263,
272,
212,
247,
275,
202,
228,
215,
205,
186,
188,
205,
211,
184,
197,
172,
172,
215,
144,
172,
160,
164,
184,
146,
157,
158,
160,
145,
118,
122,
126,
136,
126,
131,
104,
101,
123,
117,
116,
127,
108,
109,
111,
90,
97,
84,
84,
81,
82,
87,
79,
83,
80,
61,
80,
74,
69,
55,
54,
65,
48,
61,
53,
63,
63,
67,
52,
37,
50,
44,
46,
40,
42,
49,
26,
39,
34,
29,
25,
37,
34,
24,
23,
28,
27,
22,
24,
32,
28,
15,
19,
14,
14,
19,
16,
17,
16,
22,
18,
11,
8,
9,
9,
12,
4,
11,
3,
12,
9,
6,
3,
7,
8,
4,
5,
1,
5,
1,
6,
0,
0,
0,
#ENDOFDATA   :