File: data/exp_raw/ADM6005a spectra/Zn std.msa
#FORMAT      : EMSA/MAS Spectral Data File
#VERSION     : 1.0
#TITLE       : Bruker Nano spectrum Acquisition
#DATE        : 12-JUL-2019
#TIME        : 10:14
#OWNER       : Bruker Nano
#NPOINTS     : 4096
#NCOLUMNS    : 1
#XUNITS      : eV
#YUNITS      : counts
#DATATYPE    : Y
#XPERCHAN    : 5.01623
#OFFSET      : -484.154
#BEAMKV      : 20
#SIGNALTYPE  : EDS
#ELEVANGLE   : 40
#AZIMANGLE   : 45
#LIVETIME    : 100.002
#REALTIME    : 123.72
#PROBECUR    : 5
#TAUWIND     : 0
#TDEADLYR    : 0
#TACTLYR     : 0.045
#TALWIND     : 0.004
#CHOFFSET    : 0.0
#XLABEL      : Energy (eV)
#YLABEL      : Counts
#EDSDET      : SDUTW
##D2STDCMP   : Zn,(Zn:100.0),7.14
##DET_HASH   : c6370f9e-cc72-7559-f57e-203d75c8942b
##CALIB_HASH : 54ef92dd-c85a-cbea-898e-ee7ceef4355d
##SAMPLE     : <BulkSample id="1">\n<mOrientation id="2">\n<double>0.0</double>\n<double>0.0</double>\n<double>-1.0</double>\n</mOrientation>\n</BulkSample>
#SPECTRUM    :
0,
0,
0,
0,
12,
44,
3305,
206237,
87,
526,
886,
3821,
746,
1017,
2389,
1896,
2451,
3453,
4407,
14544,
19534,
218503,
87583,
2902,
1406,
1367,
1393,
1512,
1597,
1655,
1708,
1848,
2103,
1958,
1885,
1974,
2049,
2177,
2201,
2297,
2379,
2434,
2364,
2402,
2436,
2433,
2377,
2379,
2257,
2379,
2317,
2289,
2337,
2222,
2262,
2189,
2222,
2180,
2144,
2117,
2101,
2008,
1965,
1949,
1861,
1838,
1837,
1834,
1852,
1763,
1738,
1772,
1765,
1690,
1639,
1602,
1548,
1568,
1564,
1497,
1460,
1467,
1430,
1386,
1381,
1361,
1319,
1290,
1293,
1309,
1203,
1274,
1267,
1228,
1172,
1155,
1063,
1148,
1129,
1116,
1093,
1070,
1009,
1009,
1048,
959,
1007,
997,
997,
954,
870,
904,
978,
1079,
1036,
853,
838,
824,
785,
824,
855,
822,
817,
839,
804,
796,
891,
1362,
7445,
29771,
40756,
17938,
2965,
809,
685,
710,
702,
661,
634,
728,
675,
1129,
3228,
5646,
4076,
1510,
625,
512,
474,
477,
444,
381,
448,
448,
408,
394,
398,
390,
389,
420,
422,
417,
399,
395,
386,
403,
364,
359,
331,
336,
336,
334,
324,
328,
342,
322,
319,
296,
315,
293,
295,
240,
297,
298,
249,
244,
255,
250,
253,
222,
250,
288,
248,
223,
215,
206,
227,
196,
207,
203,
207,
202,
171,
187,
185,
173,
164,
160,
159,
149,
152,
142,
144,
162,
151,
129,
162,
137,
144,
121,
117,
119,
129,
104,
118,
102,
89,
110,
93,
93,
94,
106,
115,
90,
76,
95,
85,
76,
77,
72,
63,
70,
61,
75,
73,
56,
62,
63,
55,
46,
48,
66,
49,
38,
43,
31,
36,
40,
36,
29,
31,
35,
34,
23,
37,
22,
18,
17,
19,
14,
13,
12,
28,
24,
13,
15,
17,
14,
13,
9,
12,
10,
2,
14,
9,
3,
4,
3,
10,
1,
1,
3,
0,
0,
#ENDOFDATA   :